> P at   412.43 seconds at    35.00 degrees for a     10.0 km deep source in the iasp91 model with rayParam    8.613 s/deg.
>   0.00    6361.0  - Commented out due to bugs with NumPy 1.4
    0.00    6361.0
    0.02    6356.0
    0.05    6351.0
    0.05    6350.1
    0.06    6349.1
    0.07    6347.2
    0.09    6343.5
    0.12    6336.0
    0.13    6334.7
    0.14    6333.3
    0.16    6330.7
    0.20    6325.4
    0.24    6320.1
    0.28    6314.8
    0.36    6304.1
    0.44    6293.5
    0.46    6290.0
    0.53    6280.2
    0.61    6270.5
    0.75    6251.0
    0.77    6249.2
    0.78    6247.4
    0.81    6243.8
    0.86    6236.5
    0.97    6222.6
    1.08    6208.5
    1.09    6207.2
    1.10    6206.0
    1.20    6193.2
    1.31    6180.3
    1.47    6161.0
    1.50    6157.3
    1.53    6153.7
    1.62    6142.0
    1.72    6130.2
    1.89    6111.0
    1.91    6108.8
    1.93    6106.6
    2.04    6094.8
    2.09    6088.8
    2.15    6082.8
    2.25    6072.0
    2.35    6061.0
    2.36    6059.9
    2.37    6058.8
    2.48    6046.8
    2.54    6040.7
    2.60    6034.6
    2.72    6022.9
    2.83    6011.0
    2.84    6010.6
    2.84    6010.2
    2.97    5998.0
    3.03    5991.8
    3.10    5985.6
    3.22    5973.3
    3.36    5961.0
    3.40    5957.4
    3.44    5953.8
    3.53    5946.5
    3.70    5932.6
    3.87    5918.6
    3.97    5911.0
    4.24    5890.3
    4.62    5861.7
    4.63    5861.0
    5.03    5832.7
    5.35    5811.0
    5.47    5803.3
    5.94    5773.4
    6.15    5761.0
    6.45    5743.1
    7.01    5712.3
    7.03    5711.0
    7.09    5708.9
    7.14    5706.8
    7.25    5702.6
    7.48    5694.1
    7.95    5677.6
    8.46    5661.0
    8.55    5657.9
    8.65    5654.9
    9.33    5635.0
   10.10    5615.0
   10.27    5611.0
   10.79    5599.8
   11.30    5588.6
   11.94    5577.3
   12.57    5566.0
   12.72    5563.8
   12.87    5561.5
   13.75    5551.2
   14.63    5540.8
   15.58    5536.6
   16.53    5532.3
   17.48    5528.1
   18.43    5532.3
   19.38    5536.6
   20.33    5540.8
   21.21    5551.2
   22.08    5561.5
   22.24    5563.8
   22.38    5566.0
   23.02    5577.3
   23.65    5588.6
   24.17    5599.8
   24.69    5611.0
   24.85    5615.0
   25.62    5635.0
   26.30    5654.9
   26.40    5657.9
   26.50    5661.0
   27.00    5677.6
   27.47    5694.1
   27.70    5702.6
   27.81    5706.8
   27.87    5708.9
   27.92    5711.0
   27.95    5712.3
   28.50    5743.1
   28.81    5761.0
   29.01    5773.4
   29.48    5803.3
   29.60    5811.0
   29.92    5832.7
   30.32    5861.0
   30.33    5861.7
   30.72    5890.3
   30.99    5911.0
   31.08    5918.6
   31.26    5932.6
   31.43    5946.5
   31.51    5953.8
   31.56    5957.4
   31.60    5961.0
   31.73    5973.3
   31.86    5985.6
   31.92    5991.8
   31.99    5998.0
   32.11    6010.2
   32.12    6010.6
   32.12    6011.0
   32.24    6022.9
   32.35    6034.6
   32.41    6040.7
   32.47    6046.8
   32.59    6058.8
   32.60    6059.9
   32.61    6061.0
   32.71    6072.0
   32.81    6082.8
   32.86    6088.8
   32.92    6094.8
   33.02    6106.6
   33.04    6108.8
   33.06    6111.0
   33.23    6130.2
   33.33    6142.0
   33.43    6153.7
   33.46    6157.3
   33.49    6161.0
   33.65    6180.3
   33.75    6193.2
   33.85    6206.0
   33.86    6207.2
   33.87    6208.5
   33.98    6222.6
   34.09    6236.5
   34.15    6243.8
   34.17    6247.4
   34.19    6249.2
   34.20    6251.0
   34.35    6270.5
   34.42    6280.2
   34.49    6290.0
   34.52    6293.5
   34.60    6304.1
   34.67    6314.8
   34.71    6320.1
   34.75    6325.4
   34.79    6330.7
   34.81    6333.3
   34.82    6334.7
   34.83    6336.0
   34.87    6343.5
   34.89    6347.2
   34.90    6349.1
   34.90    6350.1
   34.91    6351.0
   34.93    6356.0
   34.95    6361.0
   34.95    6361.0
   34.98    6366.0
   34.99    6368.5
   34.99    6369.7
   35.00    6371.0
   35.00    6371.0
