> P at   412.51 seconds at    35.00 degrees for a     10.0 km deep source in the ak135 model with rayParam    8.625 s/deg.
    0.00    6361.0
    0.01    6359.0
    0.05    6351.0
    0.05    6350.1
    0.06    6349.1
    0.07    6347.2
    0.09    6343.5
    0.13    6336.0
    0.13    6334.7
    0.14    6333.3
    0.16    6330.7
    0.20    6325.4
    0.24    6320.1
    0.28    6314.8
    0.36    6304.1
    0.44    6293.5
    0.46    6289.9
    0.54    6280.2
    0.61    6270.4
    0.76    6251.0
    0.77    6249.2
    0.78    6247.4
    0.81    6243.7
    0.87    6236.4
    0.97    6222.5
    1.08    6208.4
    1.09    6207.2
    1.10    6206.0
    1.21    6193.2
    1.31    6180.2
    1.47    6161.0
    1.50    6157.2
    1.53    6153.5
    1.63    6141.8
    1.73    6130.1
    1.90    6111.0
    1.92    6108.7
    1.94    6106.4
    2.04    6094.6
    2.10    6088.6
    2.15    6082.6
    2.25    6071.8
    2.35    6061.0
    2.36    6059.8
    2.38    6058.6
    2.49    6046.6
    2.55    6040.5
    2.61    6034.4
    2.72    6022.8
    2.84    6011.0
    2.85    6010.5
    2.85    6010.1
    2.98    5997.8
    3.04    5991.7
    3.10    5985.5
    3.23    5973.3
    3.37    5961.0
    3.41    5957.4
    3.45    5953.8
    3.54    5946.6
    3.71    5932.8
    3.88    5918.7
    3.98    5911.0
    4.24    5890.9
    4.63    5862.1
    4.65    5861.0
    5.04    5833.5
    5.37    5811.0
    5.47    5804.2
    5.95    5774.5
    6.17    5761.0
    6.45    5744.4
    7.00    5714.0
    7.06    5711.0
    7.15    5707.7
    7.23    5704.4
    7.41    5697.8
    7.93    5679.5
    8.50    5661.0
    8.52    5660.3
    8.54    5659.6
    9.21    5639.9
    9.97    5620.0
   10.35    5611.0
   11.30    5590.8
   11.87    5580.6
   12.44    5570.4
   13.03    5561.5
   13.92    5555.2
   14.81    5548.9
   15.70    5542.6
   16.59    5536.4
   17.48    5530.1
   18.37    5536.4
   19.26    5542.6
   20.15    5548.9
   21.04    5555.2
   21.93    5561.5
   22.52    5570.4
   23.09    5580.6
   23.66    5590.8
   24.60    5611.0
   24.98    5620.0
   25.74    5639.9
   26.41    5659.6
   26.43    5660.3
   26.45    5661.0
   27.02    5679.5
   27.54    5697.8
   27.72    5704.4
   27.81    5707.7
   27.90    5711.0
   27.95    5714.0
   28.50    5744.4
   28.79    5761.0
   29.01    5774.5
   29.48    5804.2
   29.58    5811.0
   29.92    5833.5
   30.31    5861.0
   30.33    5862.1
   30.71    5890.9
   30.98    5911.0
   31.07    5918.7
   31.25    5932.8
   31.42    5946.6
   31.50    5953.8
   31.55    5957.4
   31.59    5961.0
   31.72    5973.3
   31.85    5985.5
   31.91    5991.7
   31.98    5997.8
   32.10    6010.1
   32.11    6010.5
   32.11    6011.0
   32.23    6022.8
   32.35    6034.4
   32.41    6040.5
   32.46    6046.6
   32.58    6058.6
   32.59    6059.8
   32.60    6061.0
   32.70    6071.8
   32.80    6082.6
   32.86    6088.6
   32.91    6094.6
   33.02    6106.4
   33.04    6108.7
   33.06    6111.0
   33.22    6130.1
   33.33    6141.8
   33.42    6153.5
   33.45    6157.2
   33.49    6161.0
   33.64    6180.2
   33.75    6193.2
   33.85    6206.0
   33.86    6207.2
   33.87    6208.4
   33.98    6222.5
   34.09    6236.4
   34.14    6243.7
   34.17    6247.4
   34.19    6249.2
   34.20    6251.0
   34.35    6270.4
   34.42    6280.2
   34.49    6289.9
   34.52    6293.5
   34.60    6304.1
   34.67    6314.8
   34.71    6320.1
   34.75    6325.4
   34.79    6330.7
   34.81    6333.3
   34.82    6334.7
   34.83    6336.0
   34.87    6343.5
   34.89    6347.2
   34.90    6349.1
   34.90    6350.1
   34.91    6351.0
   34.95    6359.0
   34.95    6361.0
   34.97    6365.0
   34.99    6368.0
   34.99    6369.5
   35.00    6371.0
