> P at   412.43 seconds at    35.00 degrees for a     10.0 km deep source in the iasp91 model with rayParam    8.612 s/deg.
    0.00    6361.0
    0.00    6361.0
    0.02    6356.0
    0.05    6351.0
    0.05    6350.1
    0.06    6349.1
    0.07    6347.2
    0.09    6343.5
    0.12    6336.0
    0.13    6334.7
    0.14    6333.3
    0.16    6330.7
    0.20    6325.4
    0.24    6320.1
    0.28    6314.8
    0.36    6304.1
    0.44    6293.5
    0.46    6290.0
    0.53    6280.2
    0.61    6270.5
    0.75    6251.0
    0.77    6249.2
    0.78    6247.4
    0.81    6243.8
    0.86    6236.5
    0.97    6222.6
    1.08    6208.5
    1.09    6207.2
    1.10    6206.0
    1.20    6193.2
    1.31    6180.3
    1.47    6161.0
    1.50    6157.3
    1.53    6153.7
    1.62    6142.0
    1.72    6130.2
    1.89    6111.0
    1.91    6108.8
    1.93    6106.6
    2.04    6094.8
    2.09    6088.8
    2.14    6082.8
    2.24    6072.0
    2.35    6061.0
    2.36    6059.9
    2.37    6058.8
    2.48    6046.8
    2.54    6040.7
    2.60    6034.6
    2.72    6022.9
    2.83    6011.0
    2.84    6010.6
    2.84    6010.2
    2.97    5998.0
    3.03    5991.8
    3.09    5985.6
    3.22    5973.3
    3.36    5961.0
    3.40    5957.4
    3.44    5953.8
    3.53    5946.5
    3.70    5932.6
    3.87    5918.6
    3.97    5911.0
    4.24    5890.3
    4.62    5861.7
    4.63    5861.0
    5.03    5832.7
    5.35    5811.0
    5.47    5803.3
    5.94    5773.4
    6.15    5761.0
    6.45    5743.1
    7.00    5712.3
    7.03    5711.0
    7.08    5708.9
    7.14    5706.8
    7.25    5702.6
    7.48    5694.1
    7.95    5677.6
    8.45    5661.0
    8.55    5657.9
    8.65    5654.9
    9.33    5635.0
   10.10    5615.0
   10.26    5611.0
   10.78    5599.8
   11.29    5588.6
   11.93    5577.3
   12.56    5566.0
   12.71    5563.8
   12.86    5561.5
   13.73    5551.2
   14.60    5540.8
   15.56    5536.5
   16.52    5532.1
   17.48    5527.8
   18.45    5532.1
   19.41    5536.5
   20.37    5540.8
   21.24    5551.2
   22.11    5561.5
   22.26    5563.8
   22.41    5566.0
   23.04    5577.3
   23.68    5588.6
   24.19    5599.8
   24.70    5611.0
   24.87    5615.0
   25.64    5635.0
   26.32    5654.9
   26.42    5657.9
   26.52    5661.0
   27.02    5677.6
   27.49    5694.1
   27.72    5702.6
   27.83    5706.8
   27.88    5708.9
   27.94    5711.0
   27.96    5712.3
   28.52    5743.1
   28.82    5761.0
   29.03    5773.4
   29.50    5803.3
   29.62    5811.0
   29.94    5832.7
   30.34    5861.0
   30.35    5861.7
   30.73    5890.3
   31.00    5911.0
   31.10    5918.6
   31.27    5932.6
   31.44    5946.5
   31.53    5953.8
   31.57    5957.4
   31.61    5961.0
   31.75    5973.3
   31.87    5985.6
   31.94    5991.8
   32.00    5998.0
   32.13    6010.2
   32.13    6010.6
   32.14    6011.0
   32.25    6022.9
   32.37    6034.6
   32.43    6040.7
   32.49    6046.8
   32.60    6058.8
   32.61    6059.9
   32.62    6061.0
   32.72    6072.0
   32.82    6082.8
   32.88    6088.8
   32.93    6094.8
   33.04    6106.6
   33.06    6108.8
   33.08    6111.0
   33.24    6130.2
   33.35    6142.0
   33.44    6153.7
   33.47    6157.3
   33.50    6161.0
   33.66    6180.3
   33.77    6193.2
   33.87    6206.0
   33.88    6207.2
   33.89    6208.5
   34.00    6222.6
   34.10    6236.5
   34.16    6243.8
   34.19    6247.4
   34.20    6249.2
   34.22    6251.0
   34.36    6270.5
   34.43    6280.2
   34.51    6290.0
   34.53    6293.5
   34.61    6304.1
   34.69    6314.8
   34.73    6320.1
   34.77    6325.4
   34.81    6330.7
   34.82    6333.3
   34.83    6334.7
   34.84    6336.0
   34.88    6343.5
   34.90    6347.2
   34.91    6349.1
   34.92    6350.1
   34.92    6351.0
   34.95    6356.0
   34.97    6361.0
   34.97    6361.0
   34.99    6366.0
   35.00    6368.5
   35.01    6369.7
   35.01    6371.0
   35.01    6371.0
